%#LIBRARY    ENDF/B-VIII.0
%#REACTION   SI-28(N,TOT),SIG
%#NUCLEUS    Si-28
%#EN-MIN     1e-05
%#EN-MAX     1.5e+08
%#E,eV        Sig,b        Interpolation
e      sig
1e-05        29.6481
2.66625e-05        18.2355
7.10888e-05        11.2969
0.000116078        8.94488
0.00018954        7.12487
0.000341383        5.49718
0.000557433        4.50609
0.000982332        3.67677
0.00167287        3.13875
0.00314235        2.71932
0.00586616        2.45993
0.0128551        2.26302
0.0252419        2.1606
0.0554423        2.08807
0.147823        2.0339
0.394132        2.00184
1.05086        1.98495
2.88146        1.97381
7.5758        1.96581
18.5705        1.96217
50.2121        1.95942
118.018        1.95745
285.273        1.95496
669.431        1.95073
1593.42        1.9415
3770.23        1.92039
8939.45        1.87066
18761        1.76329
30697.6        1.59114
31555.1        1.576
31642.5        1.57454
31677.7        1.57408
31696.2        1.57407
31706.5        1.57444
31711.4        1.57523
31714.9        1.57709
31717.3        1.5803
31720        1.58849
31723        1.60636
31726.8        1.65274
31735.4        1.84539
31741.4        1.89101
31750        1.71677
31755.1        1.62566
31758.3        1.59647
31761.2        1.58357
31764.1        1.5774
31766.6        1.575
31770.5        1.57365
31777.7        1.5728
31791.4        1.5721
31815        1.57139
31868.2        1.57021
32040.2        1.56673
36284.5        1.47758
43179.9        1.26695
46672.3        1.08407
48882.5        0.903159
50499.3        0.703632
51477.5        0.536804
52337.1        0.348441
53090.2        0.153678
53485.2        0.0566749
53690.8        0.0198384
53781.9        0.00985165
53836.1        0.00656209
53868.4        0.00574407
53903.4        0.00594753
53932.3        0.00706619
53976.8        0.0106733
54029.3        0.018275
54112.4        0.0393913
54203.1        0.0785978
54311.1        0.155527
54428.2        0.291931
54557.1        0.539279
54688.1        0.957575
54812.5        1.61032
54930.4        2.6167
55048.3        4.26569
55166.2        7.03178
55267.7        10.9453
55382.3        18.1217
55536.2        33.7968
55659        46.687
55744.1        49.9727
55870.2        44.5693
56069.9        29.8925
56204.2        22.8124
56364.6        17.2249
56528.4        13.5935
56724.8        10.7918
56960.6        8.65505
57216        7.16252
57576.2        5.83564
58034.6        4.81006
58493        4.16591
59213.4        3.52595
60118        3.04218
61407.3        2.64024
63208.2        2.31549
65500.4        2.07319
66665.2        1.98572
67070.9        1.95748
67281.7        1.94543
67413.5        1.93834
67497.9        1.93452
67559.1        1.93301
67596        1.93435
67629.7        1.9427
67653        1.95859
67670.1        1.98627
67681.4        2.02805
67690.8        2.11605
67696.2        2.244
67700.7        2.47614
67705.1        2.91933
67708.8        3.56136
67712.9        4.71448
67718.6        7.12128
67728.4        11.5488
67734        12.2706
67739        11.1545
67749        6.46973
67754.1        4.47786
67757.9        3.51369
67762        2.85724
67765.5        2.5253
67770        2.29177
67775.4        2.15707
67783.8        2.06671
67795.5        2.01122
67813.1        1.97338
67836.3        1.94931
67869.7        1.93236
67914.2        1.92286
67970.3        1.91323
68063.2        1.90602
68194.6        1.89688
68415.4        1.88221
68764.8        1.86387
69534.5        1.82561
70580.9        1.77792
70700.1        1.77284
70737.4        1.77139
70752.1        1.77101
70758.4        1.77116
70763.2        1.772
70767.8        1.77454
70771.4        1.77929
70776.1        1.79258
70782.2        1.82758
70795.2        1.93927
70802.8        1.94918
70816.2        1.83912
70822.8        1.79641
70827.7        1.78034
70831.9        1.77332
70836.2        1.76975
70840.4        1.76798
70845.4        1.76695
70856        1.76626
70883.1        1.76503
70958.6        1.76205
71417.8        1.74451
76895.4        1.56335
84861.3        1.35951
86032.2        1.33133
86362.7        1.32347
86509.9        1.32013
86597        1.31841
86653.6        1.31776
86691.9        1.31815
86715.7        1.31958
86734.9        1.32308
86746.1        1.33022
86752.6        1.3407
86758        1.36498
86762.5        1.40959
86767.4        1.50892
86772.5        1.70971
86778.9        2.14575
86791.3        3.23095
86797.8        3.42189
86805.5        3.03991
86816.9        2.03062
86822.3        1.69623
86827.8        1.49962
86832.4        1.41662
86837.4        1.37151
86842.5        1.3506
86850.5        1.33655
86863.7        1.32896
86884.7        1.32222
86910.5        1.31901
86951        1.31643
87011        1.31362
87100.3        1.31004
87239.6        1.30621
87554        1.29898
88843.4        1.26968
104878        0.903629
123687        0.432061
135204        0.143473
139828        0.0550484
142532        0.0217641
144016        0.0122373
145150        0.0102713
146459        0.0148548
147855        0.0294075
149512        0.0623549
151868        0.146633
154747        0.33042
157539        0.628354
160331        1.09297
164345        2.18217
169056        4.35507
174291        8.04598
182667        13.8406
189647        14.7399
201164        12.0229
215124        9.07654
227687        7.48262
241647        6.38658
259097        5.52583
286319        4.7238
295867        4.53022
297217        4.5033
297783        4.49437
298079        4.48978
298260        4.4871
298367        4.49075
298455        4.49494
298509        4.50195
298555        4.51806
298587        4.54728
298606        4.58886
298620        4.66694
298631        4.81141
298640        5.06707
298650        5.54921
298659        6.27333
298675        8.39763
298692        10.4192
298706        10.5716
298718        9.32214
298739        6.54597
298749        5.63233
298757        5.1516
298767        4.85509
298776        4.70195
298788        4.6131
298806        4.55743
298834        4.52027
298871        4.50187
298923        4.48563
298997        4.48095
299106        4.47459
299266        4.46556
299496        4.45912
299900        4.44791
300494        4.43152
300790        4.4204
300961        4.40582
301057        4.39542
301125        4.37631
301170        4.358
301203        4.33363
301220        4.31005
301231        4.28778
301240        4.26608
301248        4.23589
301258        4.19715
301270        4.15978
301290        4.19954
301305        4.38049
301321        4.61845
301344        4.73423
301355        4.69876
301366        4.64954
301375        4.61783
301384        4.5902
301396        4.56081
301410        4.54241
301438        4.51189
301477        4.4937
301531        4.47741
301617        4.46173
301739        4.45201
301983        4.43849
302501        4.42378
305478        4.36544
333379        3.99258
351146        3.81197
352730        3.79776
353407        3.79172
353790        3.78836
354019        3.78899
354168        3.79276
354278        3.7958
354351        3.80714
354404        3.82177
354443        3.8489
354474        3.89884
354492        3.96639
354506        4.0836
354519        4.32237
354528        4.67078
354538        5.2451
354549        6.35028
354574        9.48946
354587        10.4494
354600        10.1106
354623        7.35014
354637        5.68693
354647        4.90954
354657        4.45642
354666        4.21444
354680        4.02398
354696        3.92804
354720        3.8662
354753        3.83154
354798        3.80993
354865        3.79592
354948        3.78821
355077        3.7833
355253        3.7769
355502        3.77257
355962        3.76864
356932        3.76045
359989        3.73474
392543        3.49147
399074        3.44726
399381        3.4452
399487        3.44451
399543        3.4442
399567        3.44413
399579        3.44421
399588        3.44472
399596        3.44693
399604        3.45013
399612        3.45504
399623        3.47118
399634        3.50346
399661        3.63655
399680        3.70232
399703        3.63529
399728        3.5106
399740        3.47805
399751        3.46492
399759        3.45766
399766        3.45335
399774        3.45273
399785        3.45225
399799        3.4519
399834        3.4513
399903        3.4502
400051        3.44795
400483        3.44217
416309        3.35281
474847        3.07417
504824        2.9652
518742        2.94737
524496        2.97043
527039        3.00537
528754        3.06803
529756        3.14152
530512        3.25939
531031        3.42056
531437        3.6688
531742        4.04661
531986        4.64702
532143        5.36614
532267        6.31259
532371        7.5749
532481        9.58406
532646        12.9194
532723        12.9839
532804        11.4318
532960        7.40357
533067        5.63988
533163        4.68645
533284        3.98616
533431        3.52215
533622        3.2097
533874        3.02088
534194        2.92016
534647        2.87024
535372        2.85255
536528        2.8664
538036        2.8952
541477        2.96896
547174        3.18027
551118        3.50207
554186        3.98729
558130        5.37088
563279        10.2725
565492        12.4345
567662        11.9824
571715        8.02766
573906        6.51561
577412        5.07888
581356        4.20786
583493        3.88142
584814        3.70033
585602        3.59278
586068        3.52964
586355        3.50324
586529        3.5003
586688        3.53006
586800        3.60998
586882        3.75698
586945        3.98423
586997        4.34814
587052        5.08098
587130        6.81937
587176        7.51079
587215        7.2764
587289        5.77169
587346        4.85127
587399        4.35335
587465        3.99018
587545        3.75004
587657        3.55923
587792        3.42518
587999        3.28913
588305        3.13704
588682        2.93948
589031        2.6953
589325        2.3881
589529        2.07071
589701        1.69444
589863        1.24125
589971        0.971841
590050        0.957505
590124        1.30404
590192        2.09186
590282        3.5928
590373        4.86646
590509        5.53769
590627        5.48451
590783        5.22268
590996        4.87805
591233        4.60447
591587        4.33428
592043        4.11701
592702        3.92422
593648        3.75524
595826        3.54771
598331        3.40555
600110        3.33699
600898        3.31079
601416        3.29755
601682        3.29133
601892        3.29589
602031        3.30508
602133        3.32341
602215        3.36642
602271        3.43308
602311        3.54026
602343        3.72983
602363        3.97975
602383        4.41775
602402        5.15018
602436        7.11126
602460        8.2668
602482        8.21348
602510        6.79322
602540        5.06971
602559        4.38912
602578        3.96312
602602        3.69661
602634        3.52255
602672        3.4234
602722        3.35971
602797        3.31454
602896        3.2862
603031        3.26729
603251        3.25056
603561        3.23795
604066        3.22046
604989        3.1986
606862        3.1544
611632        3.07004
628203        2.88802
657717        2.70518
700532        2.51897
713132        2.46944
713619        2.46755
713781        2.46697
713857        2.46678
713892        2.46614
713910        2.46597
713926        2.46634
713937        2.46741
713950        2.47242
713964        2.48274
713982        2.50607
714022        2.59869
714046        2.62501
714076        2.57468
714107        2.50893
714122        2.49176
714137        2.48163
714148        2.47764
714161        2.4762
714177        2.47533
714201        2.47452
714255        2.47302
714360        2.47033
714621        2.46829
716270        2.46274
739227        2.39446
757553        2.38532
768137        2.44866
770296        2.47729
770905        2.4945
771178        2.51683
771339        2.54982
771426        2.59595
771489        2.67062
771534        2.78522
771563        2.94588
771589        3.23017
771608        3.60027
771626        4.2187
771650        5.48098
771689        7.85888
771710        8.38177
771730        7.89745
771771        5.38698
771794        4.19196
771812        3.58209
771832        3.1835
771854        2.95183
771887        2.77217
771934        2.65829
771996        2.59178
772084        2.5503
772212        2.52813
772443        2.51707
772896        2.51692
774345        2.5397
782380        2.792
793220        3.71162
804059        6.33287
812610        8.91788
819415        8.6903
831760        6.12262
838987        5.11772
841998        4.83241
843425        4.75384
843971        4.78918
844300        4.88865
844501        5.04126
844683        5.34559
844805        5.76025
844909        6.41186
845006        7.49654
845160        10.2682
845230        10.8833
845304        10.2434
845454        7.53155
845568        6.28263
845674        5.65261
845806        5.22877
845961        4.96071
846219        4.73465
846582        4.58585
847110        4.48105
848129        4.36594
850829        4.17783
858027        3.82493
868975        3.4695
871048        3.42037
871558        3.40974
871794        3.41302
871949        3.4186
872034        3.43355
872099        3.46268
872140        3.51163
872168        3.58329
872191        3.715
872209        3.92108
872227        4.29308
872248        4.97345
872289        6.61954
872309        6.96353
872333        6.55793
872374        4.85353
872394        4.22288
872413        3.8598
872431        3.66162
872454        3.54435
872486        3.4732
872533        3.4299
872601        3.40495
872701        3.39151
872853        3.38046
873144        3.3703
873870        3.35036
877889        3.26641
891668        2.99466
900486        2.72151
904014        2.54368
905851        2.51667
906880        2.69034
907615        3.10405
908276        3.94122
909218        6.35273
909921        8.24231
910665        8.6591
911730        7.56401
912816        6.46333
913982        5.70729
916324        4.93628
920850        4.43041
934643        4.43165
958398        5.45872
972958        5.61198
999012        4.72019
1.01436e+06        4.19452
1.01639e+06        4.14793
1.01688e+06        4.15012
1.01717e+06        4.16581
1.01735e+06        4.20179
1.01747e+06        4.26765
1.01755e+06        4.37771
1.01761e+06        4.57514
1.01766e+06        4.933
1.01769e+06        5.54076
1.01772e+06        6.64379
1.01778e+06        8.9022
1.01781e+06        9.02542
1.01787e+06        6.80754
1.0179e+06        5.57311
1.01793e+06        4.86618
1.01797e+06        4.50297
1.01802e+06        4.29448
1.01807e+06        4.19675
1.01817e+06        4.13122
1.01832e+06        4.09104
1.01857e+06        4.07088
1.01907e+06        4.05034
1.02047e+06        4.01617
1.02701e+06        3.85998
1.03612e+06        3.70336
1.03897e+06        3.73081
1.04019e+06        3.83149
1.04086e+06        3.9921
1.04135e+06        4.25763
1.04178e+06        4.7741
1.04204e+06        5.41226
1.0423e+06        6.61291
1.04258e+06        9.00749
1.04287e+06        11.4579
1.04308e+06        10.5591
1.04342e+06        7.10927
1.0437e+06        5.53812
1.04397e+06        4.79137
1.04428e+06        4.30754
1.04473e+06        3.97137
1.04527e+06        3.77454
1.04636e+06        3.60742
1.04813e+06        3.50341
1.05131e+06        3.41776
1.06159e+06        3.2617
1.07935e+06        3.03806
1.08268e+06        2.98476
1.08371e+06        2.95029
1.08417e+06        2.91853
1.08447e+06        2.87942
1.08468e+06        2.8242
1.0848e+06        2.76703
1.08491e+06        2.67553
1.08498e+06        2.56188
1.08503e+06        2.42617
1.08507e+06        2.25572
1.08511e+06        2.0164
1.08515e+06        1.91767
1.08518e+06        2.1652
1.08521e+06        2.71777
1.08527e+06        3.4487
1.08531e+06        3.56484
1.08535e+06        3.49425
1.08539e+06        3.40231
1.08545e+06        3.31964
1.08552e+06        3.2514
1.08563e+06        3.18765
1.08577e+06        3.13945
1.08601e+06        3.09387
1.08633e+06        3.06122
1.08688e+06        3.03036
1.08795e+06        2.99899
1.09196e+06        2.94236
1.11831e+06        2.67172
1.13708e+06        2.44593
1.14619e+06        2.27533
1.14756e+06        2.24215
1.1478e+06        2.23644
1.14789e+06        2.23427
1.14792e+06        2.23426
1.14794e+06        2.23663
1.14796e+06        2.23875
1.14797e+06        2.24134
1.14799e+06        2.25338
1.14801e+06        2.27646
1.14803e+06        2.33827
1.14808e+06        2.49929
1.14811e+06        2.52157
1.14816e+06        2.35469
1.14819e+06        2.26908
1.14821e+06        2.24198
1.14823e+06        2.23182
1.14824e+06        2.22432
1.14826e+06        2.22315
1.14828e+06        2.2222
1.14832e+06        2.2208
1.14842e+06        2.21748
1.14869e+06        2.20866
1.15033e+06        2.15488
1.15395e+06        1.99157
1.15679e+06        1.76511
1.15829e+06        1.55971
1.15956e+06        1.2916
1.16053e+06        1.00341
1.1614e+06        0.756606
1.16191e+06        0.788723
1.1624e+06        1.14854
1.163e+06        2.01353
1.16379e+06        2.88039
1.16481e+06        3.10137
1.16578e+06        3.01031
1.16723e+06        2.83019
1.16991e+06        2.58919
1.17421e+06        2.346
1.17921e+06        2.13882
1.18488e+06        1.93434
1.18905e+06        1.85368
1.19473e+06        2.20608
1.1989e+06        2.59346
1.2004e+06        2.91867
1.20189e+06        4.23839
1.2035e+06        5.00054
1.20516e+06        4.91975
1.20838e+06        4.40978
1.21172e+06        3.97288
1.21667e+06        3.52241
1.22406e+06        3.05985
1.23345e+06        2.56429
1.2404e+06        2.10469
1.24597e+06        1.59434
1.25127e+06        1.20727
1.25379e+06        1.36893
1.25796e+06        2.25005
1.26105e+06        2.92638
1.26218e+06        3.21088
1.26283e+06        3.50836
1.26326e+06        3.91338
1.26356e+06        4.47677
1.26383e+06        5.47386
1.26406e+06        7.15025
1.26437e+06        9.58884
1.26452e+06        9.24475
1.26484e+06        6.31286
1.26509e+06        4.88437
1.26533e+06        4.22059
1.26567e+06        3.77027
1.26617e+06        3.49455
1.26681e+06        3.36926
1.26812e+06        3.30353
1.27084e+06        3.2824
1.27538e+06        3.25647
1.2834e+06        3.17847
1.2965e+06        3.05023
1.32015e+06        2.87648
1.35224e+06        2.68908
1.37198e+06        2.56821
1.37631e+06        2.53824
1.37777e+06        2.52818
1.37848e+06        2.52331
1.37887e+06        2.52238
1.37916e+06        2.52639
1.37935e+06        2.53204
1.37949e+06        2.54414
1.37959e+06        2.56667
1.37965e+06        2.60012
1.3797e+06        2.66297
1.37975e+06        2.80025
1.37979e+06        3.09815
1.37982e+06        3.58993
1.37988e+06        4.46642
1.37991e+06        4.54133
1.37996e+06        3.8537
1.38001e+06        3.11074
1.38004e+06        2.82767
1.38008e+06        2.6763
1.38012e+06        2.60035
1.38018e+06        2.55353
1.38028e+06        2.52686
1.38042e+06        2.51225
1.38062e+06        2.50332
1.38087e+06        2.49826
1.38128e+06        2.49331
1.38201e+06        2.48464
1.3836e+06        2.46589
1.3875e+06        2.41981
1.39296e+06        2.33649
1.39717e+06        2.25235
1.40019e+06        2.19305
1.40216e+06        2.18986
1.40393e+06        2.3128
1.40518e+06        2.627
1.40653e+06        3.52721
1.40814e+06        5.50247
1.40908e+06        6.10731
1.4108e+06        5.48661
1.41267e+06        4.54934
1.41454e+06        3.98422
1.41704e+06        3.56742
1.41985e+06        3.30982
1.42338e+06        3.1233
1.42832e+06        2.97304
1.43639e+06        2.84133
1.45054e+06        2.72786
1.46168e+06        2.69197
1.46764e+06        2.71609
1.4709e+06        2.77274
1.47366e+06        2.9068
1.47541e+06        3.12942
1.47668e+06        3.48627
1.47794e+06        4.27006
1.47916e+06        5.74084
1.47988e+06        6.34433
1.48064e+06        5.81757
1.48193e+06        4.16192
1.4822e+06        3.92822
1.48224e+06        3.89201
1.48227e+06        3.8668
1.4823e+06        3.84646
1.48236e+06        3.8105
1.4824e+06        3.78534
1.48248e+06        3.73606
1.48251e+06        3.71323
1.48253e+06        3.69665
1.48256e+06        3.67852
1.48261e+06        3.6486
1.48292e+06        3.47387
1.48387e+06        3.12892
1.48512e+06        2.89227
1.48687e+06        2.73761
1.48958e+06        2.6322
1.49327e+06        2.57284
1.49986e+06        2.52976
1.50657e+06        2.51115
1.50962e+06        2.51725
1.51066e+06        2.53294
1.51117e+06        2.55363
1.51149e+06        2.5823
1.5117e+06        2.62288
1.51185e+06        2.67953
1.51195e+06        2.75234
1.51203e+06        2.86304
1.51208e+06        3.01778
1.51213e+06        3.30408
1.51217e+06        3.75779
1.51222e+06        4.64544
1.51228e+06        5.75345
1.51231e+06        5.65476
1.51236e+06        4.57031
1.51242e+06        3.1717
1.51246e+06        2.72488
1.5125e+06        2.53916
1.51255e+06        2.44778
1.51262e+06        2.41403
1.51272e+06        2.40833
1.51287e+06        2.41616
1.5131e+06        2.42797
1.51346e+06        2.44426
1.51411e+06        2.45868
1.51539e+06        2.47272
1.51876e+06        2.5034
1.52146e+06        2.55743
1.52361e+06        2.67419
1.52513e+06        2.90663
1.52607e+06        3.22977
1.52689e+06        3.7966
1.52809e+06        5.47947
1.52868e+06        6.0836
1.5292e+06        5.76582
1.5304e+06        4.08404
1.53139e+06        3.34002
1.5325e+06        2.95888
1.53373e+06        2.75774
1.53548e+06        2.61789
1.53777e+06        2.53443
1.54157e+06        2.47164
1.54771e+06        2.42539
1.55795e+06        2.38329
1.56637e+06        2.35699
1.57191e+06        2.35237
1.57476e+06        2.37666
1.57671e+06        2.45132
1.57784e+06        2.57633
1.57862e+06        2.78841
1.57922e+06        3.15317
1.57973e+06        3.83119
1.58032e+06        5.3295
1.58065e+06        5.7939
1.58098e+06        5.12127
1.58165e+06        3.4082
1.58207e+06        2.92541
1.58271e+06        2.59351
1.58372e+06        2.42339
1.58529e+06        2.39812
1.58832e+06        2.71549
1.59202e+06        3.92125
1.59471e+06        5.29942
1.59618e+06        6.86421
1.59722e+06        7.67762
1.59841e+06        6.82882
1.60001e+06        5.46612
1.60178e+06        4.74234
1.60379e+06        4.36493
1.60758e+06        4.09501
1.61268e+06        4.08433
1.61972e+06        4.40851
1.62706e+06        5.18263
1.63256e+06        6.13688
1.63731e+06        7.15018
1.63972e+06        7.46395
1.64136e+06        7.05884
1.64228e+06        6.10089
1.64345e+06        3.54735
1.64407e+06        2.43689
1.64455e+06        2.36823
1.64527e+06        3.33539
1.64652e+06        5.31112
1.64776e+06        6.436
1.64991e+06        7.17351
1.65185e+06        7.22398
1.6539e+06        6.94281
1.6553e+06        6.61517
1.65626e+06        6.32694
1.6569e+06        6.11453
1.65746e+06        5.94983
1.65791e+06        6.03858
1.65841e+06        6.7723
1.65874e+06        7.23397
1.65923e+06        7.17625
1.65982e+06        6.78823
1.66041e+06        6.45635
1.66123e+06        6.12488
1.66228e+06        5.78753
1.66333e+06        5.50418
1.6639e+06        5.36558
1.66425e+06        5.29453
1.66447e+06        5.28257
1.66462e+06        5.3373
1.66472e+06        5.47476
1.66479e+06        5.73662
1.66487e+06        6.46277
1.66497e+06        7.74684
1.66502e+06        7.8965
1.66514e+06        6.66991
1.66523e+06        5.98274
1.66531e+06        5.68102
1.66541e+06        5.45473
1.66556e+06        5.28594
1.66576e+06        5.16479
1.66609e+06        5.0447
1.66658e+06        4.91925
1.66751e+06        4.73524
1.66926e+06        4.44813
1.67286e+06        3.98002
1.68028e+06        3.33124
1.69054e+06        2.80914
1.70429e+06        2.42796
1.72382e+06        2.12368
1.7498e+06        1.8743
1.74988e+06        1.87365
1.74991e+06        1.87139
1.74995e+06        1.86716
1.75003e+06        1.85233
1.75012e+06        1.84359
1.76034e+06        1.85095
1.7765e+06        1.7696
1.78335e+06        1.86025
1.78511e+06        2.22083
1.78728e+06        1.71816
1.79156e+06        1.7202
1.80149e+06        1.85649
1.80348e+06        2.06662
1.80423e+06        2.22688
1.80582e+06        3.34072
1.8074e+06        2.02869
1.80843e+06        1.69149
1.81603e+06        1.9301
1.83211e+06        3.29821
1.8431e+06        6.31929
1.85066e+06        7.77219
1.86004e+06        7.08566
1.87582e+06        4.88457
1.8974e+06        2.68124
1.90874e+06        2.23674
1.92021e+06        4.3389
1.92805e+06        5.13925
1.93233e+06        4.13277
1.94999e+06        3.61702
1.96865e+06        4.83042
1.98239e+06        3.96374
1.9896e+06        3.62315
1.9973e+06        2.81692
2.01482e+06        2.35651
2.0328e+06        2.07064
2.04117e+06        1.31833
2.04443e+06        2.0382
2.05734e+06        2.0672
2.06212e+06        3.09076
2.064e+06        2.55108
2.0708e+06        1.84897
2.08035e+06        2.06351
2.08433e+06        3.49564
2.08687e+06        3.15581
2.09185e+06        4.43972
2.10229e+06        3.88607
2.1152e+06        5.0045
2.12e+06        4.63342
2.12829e+06        3.10574
2.1472e+06        2.61742
2.16768e+06        2.56216
2.1793e+06        2.70029
2.19692e+06        2.37467
2.21903e+06        2.59453
2.2286e+06        3.74444
2.23686e+06        2.40905
2.26097e+06        1.93507
2.27978e+06        2.93685
2.29404e+06        3.60709
2.31569e+06        2.58494
2.33728e+06        2.29352
2.35718e+06        2.37862
2.37047e+06        3.00967
2.37489e+06        3.97862
2.38327e+06        2.45094
2.40159e+06        2.1435
2.41805e+06        2.06634
2.43677e+06        1.93356
2.44713e+06        1.98184
2.45995e+06        3.61516
2.47701e+06        3.00493
2.49155e+06        3.91369
2.50132e+06        4.75554
2.51415e+06        3.27183
2.534e+06        3.07244
2.55915e+06        3.05125
2.58181e+06        2.88284
2.60594e+06        2.95474
2.6229e+06        2.73735
2.63836e+06        2.64539
2.6534e+06        2.64064
2.6597e+06        3.84645
2.66343e+06        3.3178
2.67618e+06        2.49465
2.69251e+06        2.52462
2.70899e+06        2.61293
2.72377e+06        2.37577
2.74241e+06        2.3089
2.76156e+06        2.27512
2.78187e+06        2.53377
2.8e+06        2.51216
2.82e+06        2.66742
2.84416e+06        3.46987
2.86806e+06        3.80442
2.88518e+06        2.57496
2.9034e+06        2.25351
2.91884e+06        2.0733
2.93537e+06        2.914
2.94508e+06        2.6724
2.96816e+06        1.67426
2.99329e+06        1.63512
3.01262e+06        2.81429
3.03431e+06        2.44408
3.05184e+06        2.24116
3.06317e+06        3.21712
3.06934e+06        2.04689
3.09595e+06        2.22432
3.10497e+06        2.84457
3.11402e+06        3.20418
3.12767e+06        2.48828
3.13835e+06        3.69732
3.15371e+06        2.86918
3.16762e+06        2.27385
3.17685e+06        2.23585
3.19967e+06        1.95606
3.21909e+06        2.25436
3.231e+06        3.21201
3.24302e+06        3.08359
3.26e+06        2.21715
3.28317e+06        2.30344
3.3e+06        2.11451
3.3267e+06        2.03144
3.35302e+06        2.24844
3.37638e+06        2.59137
3.39438e+06        2.16386
3.41773e+06        2.39409
3.43606e+06        2.63588
3.46163e+06        2.28035
3.48031e+06        2.10497
3.50186e+06        2.66329
3.52634e+06        2.30572
3.53775e+06        2.61309
3.54526e+06        2.29233
3.56585e+06        2.13597
3.59054e+06        1.90747
3.60545e+06        1.53632
3.62022e+06        1.2938
3.64308e+06        1.27151
3.67196e+06        1.36828
3.68604e+06        1.33333
3.7e+06        2.14241
3.71889e+06        1.39121
3.74569e+06        2.25364
3.76372e+06        2.3744
3.78796e+06        2.52103
3.8135e+06        2.23562
3.82527e+06        2.30648
3.83973e+06        2.59088
3.84706e+06        1.69311
3.86e+06        1.59039
3.8848e+06        1.76043
3.90742e+06        2.26298
3.93628e+06        2.52507
3.96222e+06        2.57195
3.98922e+06        2.119
4.01818e+06        2.2261
4.04e+06        2.65673
4.06686e+06        2.30346
4.08037e+06        2.55938
4.0938e+06        1.66226
4.10896e+06        1.93198
4.12506e+06        2.14269
4.14881e+06        1.71304
4.16932e+06        2.0445
4.18e+06        1.12705
4.19279e+06        1.74163
4.20939e+06        3.3049
4.22849e+06        3.3172
4.25314e+06        2.73143
4.27862e+06        2.7701
4.30433e+06        2.41094
4.33027e+06        2.30624
4.35426e+06        2.69043
4.37781e+06        2.04059
4.40824e+06        2.38992
4.43128e+06        2.35661
4.46227e+06        2.35073
4.49753e+06        2.67609
4.51796e+06        2.5683
4.53654e+06        2.90968
4.54988e+06        2.14801
4.56798e+06        2.30438
4.57943e+06        1.71318
4.60178e+06        1.97841
4.63871e+06        2.70822
4.66775e+06        2.89397
4.69916e+06        2.78638
4.71746e+06        2.48555
4.7289e+06        2.04299
4.74296e+06        3.11597
4.7774e+06        3.48369
4.79823e+06        2.75318
4.81638e+06        2.9382
4.83669e+06        2.02762
4.85078e+06        2.54433
4.86628e+06        3.39418
4.88728e+06        2.18764
4.90421e+06        2.52558
4.9305e+06        2.24075
4.96157e+06        2.43955
5e+06        2.60941
5.03781e+06        1.87892
5.06283e+06        2.15779
5.08409e+06        2.57999
5.11264e+06        2.63364
5.13422e+06        2.06613
5.15029e+06        3.06383
5.16643e+06        2.8013
5.2e+06        2.88757
5.22107e+06        2.27897
5.25577e+06        1.96366
5.29561e+06        1.75164
5.31734e+06        2.42136
5.35172e+06        1.43525
5.37304e+06        1.6455
5.40004e+06        1.81396
5.43022e+06        1.81781
5.44583e+06        1.15807
5.45658e+06        1.23195
5.47397e+06        1.80758
5.495e+06        1.98327
5.51e+06        2.41511
5.52832e+06        2.01698
5.57158e+06        2.44173
5.59887e+06        1.9064
5.62636e+06        2.08077
5.6468e+06        1.95303
5.67757e+06        2.31292
5.71008e+06        3.04493
5.75e+06        2.44738
5.79568e+06        2.5006
5.83046e+06        2.49748
5.86458e+06        3.05088
5.88815e+06        2.0186
5.91186e+06        1.92397
5.93977e+06        2.21989
5.95558e+06        1.59283
5.98084e+06        2.12455
6.02342e+06        2.27475
6.06028e+06        2.43234
6.11152e+06        1.72783
6.14133e+06        1.60647
6.2e+06        1.91898
6.2361e+06        2.53774
6.2725e+06        2.98862
6.29863e+06        2.94806
6.3248e+06        2.03455
6.3533e+06        2.02764
6.37335e+06        2.11799
6.4001e+06        1.82074
6.42e+06        2.1014
6.44892e+06        2.04938
6.46987e+06        1.61478
6.50234e+06        1.61164
6.55238e+06        1.52889
6.5926e+06        1.23838
6.64e+06        1.97382
6.6723e+06        2.31473
6.69e+06        2.5574
6.71981e+06        2.26959
6.75092e+06        2.17922
6.79372e+06        2.05898
6.83052e+06        1.95586
6.87508e+06        1.99675
6.93328e+06        1.61451
6.9519e+06        1.6599
7.00075e+06        1.83252
7.04225e+06        2.24238
7.0811e+06        2.10393
7.11896e+06        1.46812
7.1615e+06        1.82932
7.2159e+06        2.17318
7.2617e+06        2.12143
7.31018e+06        2.05328
7.36e+06        2.18873
7.41768e+06        2.09153
7.48e+06        1.9379
7.54387e+06        1.99647
7.61985e+06        1.96044
7.66e+06        2.20475
7.70771e+06        1.94838
7.76715e+06        2.17605
7.85952e+06        2.08124
7.96e+06        2.19115
8.08e+06        1.77241
8.21136e+06        1.95469
8.34294e+06        1.99092
8.46072e+06        1.97762
8.54635e+06        2.00686
8.65087e+06        1.9462
8.74265e+06        1.73016
8.8294e+06        1.7628
9.01354e+06        2.1687
9.32043e+06        1.96159
9.45985e+06        2.02792
9.78996e+06        1.86587
1.02961e+07        1.83615
1.058e+07        1.78444
1.09e+07        1.86922
1.11713e+07        1.66881
1.14722e+07        1.84791
1.1825e+07        1.7954
1.21693e+07        1.89942
1.27738e+07        1.95014
1.345e+07        1.89717
1.41412e+07        1.82987
1.47507e+07        1.72617
1.55703e+07        1.72979
1.62765e+07        1.83172
1.72296e+07        1.85254
1.79973e+07        1.8807
1.89403e+07        1.90233
1.98517e+07        1.85623
2.11528e+07        1.86705
2.26251e+07        1.88822
2.39953e+07        1.90647
2.57104e+07        1.92275
2.72885e+07        1.93091
2.89218e+07        1.93595
3.1e+07        1.93699
3.31181e+07        1.93404
3.53239e+07        1.92727
3.75685e+07        1.91297
3.9898e+07        1.89149
4.23055e+07        1.8661
4.48458e+07        1.83488
4.76631e+07        1.79757
5.04189e+07        1.75849
5.37477e+07        1.70661
5.76477e+07        1.64064
6.18305e+07        1.56989
6.57954e+07        1.50658
7e+07        1.4422
7.4637e+07        1.36878
8e+07        1.28876
8.5e+07        1.21736
9.08101e+07        1.14745
9.6671e+07        1.08023
1.03013e+08        1.01693
1.08951e+08        0.965164
1.1523e+08        0.915529
1.23591e+08        0.857805
1.30715e+08        0.815432
1.38249e+08        0.776457
1.4806e+08        0.735166
